Potential (V)	 Current (A)	 Elapsed Time (s)
0.10005526	 -0.00024414063	 0
0.097756721	 -0.0003527832	 0.11500013
0.09545818	 -0.00035272217	 0.23000026
0.093159638	 -0.00035229492	 0.34499976
0.090861097	 -0.00035009766	 0.45999989
0.088545009	 -0.00034765625	 0.57500002
0.086246468	 -0.00034564209	 0.69000016
0.083947927	 -0.00034637451	 0.80500029
0.081649385	 -0.0003460083	 0.91999979
0.079350844	 -0.00034509277	 1.0349999
0.077052303	 -0.00034356689	 1.15
0.074753761	 -0.00034362793	 1.2650002
0.07245522	 -0.00034344482	 1.3800003
0.070156679	 -0.0003416748	 1.4949998
0.067858137	 -0.0003416748	 1.6099999
0.065559596	 -0.00034130859	 1.7250001
0.063261054	 -0.00034094238	 1.8400002
0.060962513	 -0.00033984375	 1.9549997
0.058663972	 -0.00033966064	 2.0699998
0.05636543	 -0.00033929443	 2.185
0.054049343	 -0.00033953857	 2.3000001
0.051750802	 -0.00033911133	 2.4150002
0.050662942	 -0.00033276367	 2.5299997
0.05297903	 -0.00032867432	 2.6449999
0.055277571	 -0.0003269043	 2.76
0.057576112	 -0.00032537842	 2.8750001
0.059874654	 -0.00032458496	 2.9900003
0.062173195	 -0.00032617188	 3.1049998
0.064471737	 -0.00032629395	 3.2199999
0.066770278	 -0.00032623291	 3.335
0.069068819	 -0.00032598877	 3.4500001
0.071367361	 -0.00032458496	 3.5650003
0.073665902	 -0.00032568359	 3.6799998
0.075964443	 -0.00032727051	 3.7949999
0.078262985	 -0.00032702637	 3.91
0.080561526	 -0.00032659912	 4.0250002
0.082860067	 -0.00032537842	 4.1400003
0.085158609	 -0.00032537842	 4.2549998
0.087474696	 -0.0003258667	 4.3699999
0.089773238	 -0.00032611084	 4.4850001
0.092071779	 -0.00032513428	 4.6000002
0.09437032	 -0.00032415771	 4.7149997
0.096668862	 -0.00032495117	 4.8299998
0.098967403	 -0.00032562256	 4.945
0.10126594	 -0.00032763672	 5.0600001
0.10356449	 -0.0003291626	 5.1750002
0.10586303	 -0.00032873535	 5.2899997
0.10816157	 -0.00032788086	 5.4049999
0.11046011	 -0.00032873535	 5.52
0.11275865	 -0.00032873535	 5.6350001
0.11505719	 -0.000328125	 5.7500002
0.11735573	 -0.00032611084	 5.8649997
0.11967182	 -0.0003236084	 5.9799999
0.12197036	 -0.00032489014	 6.095
0.1242689	 -0.00032714844	 6.2100001
0.12656745	 -0.00032836914	 6.3250003
0.12886599	 -0.00032775879	 6.4399998
0.13116453	 -0.00032855225	 6.5549999
0.13346307	 -0.00032958984	 6.67
0.13576161	 -0.00032836914	 6.7850002
0.13806015	 -0.00033093262	 6.9000003
0.14035869	 -0.00033050537	 7.0149998
0.14265724	 -0.00033062744	 7.1299999
0.14495578	 -0.00033129883	 7.2450001
0.14725432	 -0.00033111572	 7.3600002
0.14955286	 -0.00033105469	 7.4749997
0.15186895	 -0.00032989502	 7.5899998
0.15416749	 -0.00032806396	 7.7049999
0.15646603	 -0.0003293457	 7.8200001
0.15876457	 -0.00032897949	 7.9350002
0.16106311	 -0.00032751465	 8.0499997
0.16336165	 -0.00032769775	 8.1649998
0.1656602	 -0.00032843018	 8.28
0.16795874	 -0.00032928467	 8.3950001
0.17025728	 -0.0003293457	 8.5100002
0.17255582	 -0.00032995605	 8.6249997
0.17485436	 -0.00033044434	 8.7399999
0.1771529	 -0.00032867432	 8.855
0.17945144	 -0.00033062744	 8.9700001
0.18174998	 -0.00033288574	 9.0850003
0.18404853	 -0.00033355713	 9.1999998
0.18636461	 -0.00032617188	 9.3149999
0.18866315	 -0.00032208252	 9.43
0.1909617	 -0.0003237915	 9.5450002
0.19326024	 -0.0003269043	 9.6600003
0.19555878	 -0.00033074951	 9.7749998
0.19785732	 -0.00033276367	 9.8899999
0.20015586	 -0.00033129883	 10.005
0.2024544	 -0.00033117676	 10.12
0.20475294	 -0.00033233643	 10.235
0.20705149	 -0.00033190918	 10.35
0.20935003	 -0.00033093262	 10.465
0.21164857	 -0.00032977295	 10.58
0.21394711	 -0.00032989502	 10.695
0.21624565	 -0.00033099365	 10.81
0.21856174	 -0.0003324585	 10.925
0.22086028	 -0.00033282471	 11.04
0.22315882	 -0.0003324585	 11.155
0.22545736	 -0.00033258057	 11.27
0.2277559	 -0.00033380127	 11.385
0.23005445	 -0.00033422852	 11.5
0.23235299	 -0.00033453369	 11.615
0.23465153	 -0.00033526611	 11.73
0.23695007	 -0.00033587646	 11.845
0.23924861	 -0.00033502197	 11.96
0.24154715	 -0.00033612061	 12.075
0.24384569	 -0.00033825684	 12.19
0.24614424	 -0.00033679199	 12.305
0.24844278	 -0.00033416748	 12.42
0.25075886	 -0.00033502197	 12.535
0.25305741	 -0.00033734131	 12.65
0.25535595	 -0.0003369751	 12.765
0.25765449	 -0.00033599854	 12.88
0.25995303	 -0.00033551025	 12.995
0.26225157	 -0.00033636475	 13.11
0.26455011	 -0.00033575439	 13.225
0.26684865	 -0.00033618164	 13.34
0.26914719	 -0.00033624268	 13.455
0.27144574	 -0.00033648682	 13.57
0.27374428	 -0.0003369751	 13.685
0.27604282	 -0.00033630371	 13.8
0.27834136	 -0.00033599854	 13.915
0.2806399	 -0.00033599854	 14.03
0.28293844	 -0.00033660889	 14.145
0.28525453	 -0.00033679199	 14.26
0.28755307	 -0.00033752441	 14.375
0.28985161	 -0.00033752441	 14.49
0.29215015	 -0.00033728027	 14.605
0.2944487	 -0.00033654785	 14.72
0.29674724	 -0.00033734131	 14.835
0.29904578	 -0.0003369751	 14.95
0.30134432	 -0.00033709717	 15.065
0.30364286	 -0.00033642578	 15.18
0.3059414	 -0.00033575439	 15.295
0.30823994	 -0.00033569336	 15.41
0.31053849	 -0.0003359375	 15.525
0.31283703	 -0.00033599854	 15.64
0.31513557	 -0.00033526611	 15.755
0.31745166	 -0.00033435059	 15.87
0.3197502	 -0.00033477783	 15.985
0.32204874	 -0.00033520508	 16.1
0.32434728	 -0.00033538818	 16.215
0.32664582	 -0.00033544922	 16.33
0.32894436	 -0.00033575439	 16.445
0.3312429	 -0.00033605957	 16.56
0.33354145	 -0.00033636475	 16.675
0.33583999	 -0.00033642578	 16.79
0.33813853	 -0.00033618164	 16.905
0.34043707	 -0.0003359375	 17.02
0.34273561	 -0.00033618164	 17.135
0.34503415	 -0.00033624268	 17.25
0.34733269	 -0.00033636475	 17.365
0.34964878	 -0.00033605957	 17.48
0.35194732	 -0.00033551025	 17.595
0.35424586	 -0.00033514404	 17.71
0.35654441	 -0.00033447266	 17.825
0.35884295	 -0.00033392334	 17.94
0.36114149	 -0.00033514404	 18.055
0.36344003	 -0.0003338623	 18.17
0.36573857	 -0.00033221436	 18.285
0.36803711	 -0.00033306885	 18.4
0.37033565	 -0.00033374023	 18.515
0.37263419	 -0.0003338623	 18.63
0.37493274	 -0.00033361816	 18.745
0.37723128	 -0.00033398438	 18.86
0.37952982	 -0.00033416748	 18.975
0.38182836	 -0.00033404541	 19.09
0.38414445	 -0.00033502197	 19.205
0.38644299	 -0.00033496094	 19.32
0.38874153	 -0.00033233643	 19.435
0.39104007	 -0.00033105469	 19.55
0.39333861	 -0.00033129883	 19.665
0.39563715	 -0.00033166504	 19.78
0.3979357	 -0.00033294678	 19.895
0.40023424	 -0.00033282471	 20.01
0.40253278	 -0.00033453369	 20.125
0.40483132	 -0.00033581543	 20.24
0.40712986	 -0.00033392334	 20.355
0.4094284	 -0.00033337402	 20.47
0.41172694	 -0.00032989502	 20.585
0.41402549	 -0.00033258057	 20.7
0.41634157	 -0.00033099365	 20.815
0.41864011	 -0.0003291626	 20.93
0.42093866	 -0.00032879639	 21.045
0.4232372	 -0.00032867432	 21.16
0.42553574	 -0.00032891846	 21.275
0.42783428	 -0.000328125	 21.39
0.43013282	 -0.00032775879	 21.505
0.43243136	 -0.00032769775	 21.62
0.4347299	 -0.00032739258	 21.735
0.43702845	 -0.00032769775	 21.85
0.43932699	 -0.00032788086	 21.965
0.44162553	 -0.00032769775	 22.08
0.44392407	 -0.00032788086	 22.195
0.44622261	 -0.00032769775	 22.31
0.44852115	 -0.00032751465	 22.425
0.45083724	 -0.00032678223	 22.54
0.45313578	 -0.00032592773	 22.655
0.45543432	 -0.00032550049	 22.77
0.45773286	 -0.00032537842	 22.885
0.46003141	 -0.00032556152	 23
0.46232995	 -0.00032562256	 23.115
0.46462849	 -0.00032580566	 23.23
0.46692703	 -0.00032556152	 23.345
0.46922557	 -0.00032556152	 23.46
0.47152411	 -0.00032611084	 23.575
0.47382265	 -0.00032519531	 23.69
0.47612119	 -0.0003248291	 23.805
0.47841974	 -0.00032446289	 23.92
0.48071828	 -0.00032366943	 24.035
0.48303436	 -0.00032330322	 24.15
0.48533291	 -0.00032354736	 24.265
0.48763145	 -0.00032391357	 24.38
0.48992999	 -0.00032391357	 24.495
0.49222853	 -0.00032287598	 24.61
0.49452707	 -0.00032183838	 24.725
0.49682561	 -0.00032128906	 24.84
0.49912415	 -0.00032128906	 24.955
0.5014227	 -0.00032092285	 25.07
0.50372124	 -0.00032128906	 25.185
0.50601978	 -0.00032110596	 25.3
0.50831832	 -0.00032019043	 25.415
0.51061686	 -0.00032025146	 25.53
0.5129154	 -0.00031976318	 25.645
0.51523149	 -0.00031890869	 25.76
0.51753003	 -0.00031817627	 25.875
0.51982857	 -0.00031817627	 25.99
0.52212711	 -0.0003182373	 26.105
0.52442566	 -0.00031811523	 26.22
0.5267242	 -0.00031835938	 26.335
0.52902274	 -0.00031866455	 26.45
0.53132128	 -0.00031921387	 26.565
0.53361982	 -0.00031939697	 26.68
0.53591836	 -0.00031848145	 26.795
0.5382169	 -0.0003180542	 26.91
0.54051545	 -0.00031756592	 27.025
0.54281399	 -0.00031677246	 27.14
0.54511253	 -0.00031616211	 27.255
0.54741107	 -0.00031634521	 27.37
0.54972716	 -0.00031591797	 27.485
0.5520257	 -0.00031622314	 27.6
0.55432424	 -0.00031671143	 27.715
0.55662278	 -0.00031628418	 27.83
0.55892132	 -0.00031585693	 27.945
0.56121986	 -0.00031536865	 28.06
0.5635184	 -0.00031451416	 28.175
0.56581695	 -0.00031347656	 28.29
0.56811549	 -0.00031274414	 28.405
0.57041403	 -0.00031195068	 28.52
0.57271257	 -0.00031121826	 28.635
0.57501111	 -0.00031134033	 28.75
0.57730965	 -0.00031103516	 28.865
0.57960819	 -0.00030926514	 28.98
0.58192428	 -0.00030847168	 29.095
0.58422282	 -0.00030865479	 29.21
0.58652136	 -0.00030841064	 29.325
0.58881991	 -0.00030786133	 29.44
0.59111845	 -0.00030761719	 29.555
0.59341699	 -0.00030773926	 29.67
0.59571553	 -0.00030773926	 29.785
0.59801407	 -0.00030755615	 29.9
0.60031261	 -0.00030731201	 30.015
0.60261115	 -0.00030700684	 30.13
0.6049097	 -0.00030633545	 30.245
0.60720824	 -0.00030603027	 30.36
0.60950678	 -0.00030584717	 30.475
0.61180532	 -0.00030596924	 30.59
0.61412141	 -0.0003057251	 30.705
0.61641995	 -0.00030529785	 30.82
0.61871849	 -0.00030456543	 30.935
0.62101703	 -0.0003034668	 31.05
0.62331557	 -0.00030322266	 31.165
0.62561411	 -0.00030206299	 31.28
0.62791266	 -0.0003012085	 31.395
0.6302112	 -0.00030096436	 31.51
0.63250974	 -0.00030072021	 31.625
0.63480828	 -0.000300354	 31.74
0.63710682	 -0.00029962158	 31.855
0.63940536	 -0.00029907227	 31.97
0.6417039	 -0.0002980957	 32.085
0.64400245	 -0.00029699707	 32.2
0.64630099	 -0.00029656982	 32.315
0.64861707	 -0.00029644775	 32.43
0.65091562	 -0.00029589844	 32.545
0.65321416	 -0.00029498291	 32.66
0.6555127	 -0.00029431152	 32.775
0.65781124	 -0.00029400635	 32.89
0.66010978	 -0.00029370117	 33.005
0.66240832	 -0.00029327393	 33.12
0.66470686	 -0.00029180908	 33.235
0.6670054	 -0.00029119873	 33.35
0.66930395	 -0.00029034424	 33.465
0.67160249	 -0.00028997803	 33.58
0.67390103	 -0.00029016113	 33.695
0.67619957	 -0.00028863525	 33.81
0.67849811	 -0.00028820801	 33.925
0.6808142	 -0.00028710937	 34.04
0.68311274	 -0.00028735352	 34.155
0.68541128	 -0.00028649902	 34.27
0.68770982	 -0.00028527832	 34.385
0.69000836	 -0.00028369141	 34.5
0.69230691	 -0.00028259277	 34.615
0.69460545	 -0.00028155518	 34.73
0.69690399	 -0.00028094482	 34.845
0.69920253	 -0.00027960205	 34.96
0.70150107	 -0.00027856445	 35.075
0.70379961	 -0.00027832031	 35.19
0.70609815	 -0.0002779541	 35.305
0.7083967	 -0.00027709961	 35.42
0.71069524	 -0.00027575684	 35.535
0.71301132	 -0.00027423096	 35.65
0.71530987	 -0.00027307129	 35.765
0.71760841	 -0.00027264404	 35.88
0.71990695	 -0.00027252197	 35.995
0.72220549	 -0.00027178955	 36.11
0.72450403	 -0.00027001953	 36.225
0.72680257	 -0.0002689209	 36.34
0.72910111	 -0.00026806641	 36.455
0.73139966	 -0.00026727295	 36.57
0.7336982	 -0.00026593018	 36.685
0.73599674	 -0.00026403809	 36.8
0.73829528	 -0.0002623291	 36.915
0.74059382	 -0.00026153564	 37.03
0.74289236	 -0.00026037598	 37.145
0.7451909	 -0.0002588501	 37.26
0.74750699	 -0.00025695801	 37.375
0.74980553	 -0.00025543213	 37.49
0.75210407	 -0.00025372314	 37.605
0.75440262	 -0.00025231934	 37.72
0.75670116	 -0.00025054932	 37.835
0.7589997	 -0.00024871826	 37.95
0.76129824	 -0.00024755859	 38.065
0.76359678	 -0.00024645996	 38.18
0.76589532	 -0.00024505615	 38.295
0.76819386	 -0.00024328613	 38.41
0.7704924	 -0.00024121094	 38.525
0.77279095	 -0.0002387085	 38.64
0.77508949	 -0.00023706055	 38.755
0.77738803	 -0.00023529053	 38.87
0.77970412	 -0.00023327637	 38.985
0.78200266	 -0.00023083496	 39.1
0.7843012	 -0.00022833252	 39.215
0.78659974	 -0.00022668457	 39.33
0.78889828	 -0.00022509766	 39.445
0.79119682	 -0.00022357178	 39.56
0.79349536	 -0.00022192383	 39.675
0.79579391	 -0.00021984863	 39.79
0.79809245	 -0.00021765137	 39.905
0.80039099	 -0.00021520996	 40.02
0.80268953	 -0.00021282959	 40.135
0.80498807	 -0.00021002197	 40.25
0.80728661	 -0.00020684814	 40.365
0.80958515	 -0.00020422363	 40.48
0.81190124	 -0.00020147705	 40.595
0.81419978	 -0.00019921875	 40.71
0.81649832	 -0.00019671631	 40.825
0.81879687	 -0.00019372559	 40.94
0.82109541	 -0.00019140625	 41.055
0.82339395	 -0.00018865967	 41.17
0.82569249	 -0.00018585205	 41.285
0.82799103	 -0.00018243408	 41.4
0.83028957	 -0.00017895508	 41.515
0.83258811	 -0.00017602539	 41.63
0.83488666	 -0.00017297363	 41.745
0.8371852	 -0.00016931152	 41.86
0.83948374	 -0.00016558838	 41.975
0.84178228	 -0.00016168213	 42.09
0.84408082	 -0.00015856934	 42.205
0.84639691	 -0.00015545654	 42.32
0.84869545	 -0.00015197754	 42.435
0.85099399	 -0.00014813232	 42.55
0.85329253	 -0.00014434814	 42.665
0.85559107	 -0.00014080811	 42.78
0.85788961	 -0.0001373291	 42.895
0.86018816	 -0.00013372803	 43.01
0.8624867	 -0.00013018799	 43.125
0.86478524	 -0.00012634277	 43.24
0.86708378	 -0.00012268066	 43.355
0.86938232	 -0.00011914063	 43.47
0.87168086	 -0.00011535645	 43.585
0.8739794	 -0.00011126709	 43.7
0.87627795	 -0.00010717773	 43.815
0.87859403	 -0.00010327148	 43.93
0.88089257	 -9.9487305e-005	 44.045
0.88319112	 -9.5581055e-005	 44.16
0.88548966	 -9.1955566e-005	 44.275
0.8877882	 -8.8043213e-005	 44.39
0.89008674	 -8.4533691e-005	 44.505
0.89238528	 -8.0957031e-005	 44.62
0.89468382	 -7.7301025e-005	 44.735
0.89698236	 -7.3577881e-005	 44.85
0.89928091	 -6.9927979e-005	 44.965
0.90157945	 -6.6522217e-005	 45.08
0.90387799	 -6.3067627e-005	 45.195
0.90617653	 -5.9735107e-005	 45.31
0.90847507	 -5.6567383e-005	 45.425
0.91077361	 -5.322876e-005	 45.54
0.9130897	 -5.0256348e-005	 45.655
0.91538824	 -4.7393799e-005	 45.77
0.91768678	 -4.4464111e-005	 45.885
0.91998532	 -4.1448975e-005	 46
0.92228387	 -3.8604736e-005	 46.115
0.92458241	 -3.6022949e-005	 46.23
0.92688095	 -3.3422852e-005	 46.345
0.92917949	 -3.1030273e-005	 46.46
0.93147803	 -2.8753662e-005	 46.575
0.93377657	 -2.6330566e-005	 46.69
0.93607511	 -2.4462891e-005	 46.805
0.93837366	 -2.2564697e-005	 46.92
0.9406722	 -2.0617676e-005	 47.035
0.94297074	 -1.8621826e-005	 47.15
0.94528683	 -1.6571045e-005	 47.265
0.94758537	 -1.4892578e-005	 47.38
0.94988391	 -1.3293457e-005	 47.495
0.95218245	 -1.1798096e-005	 47.61
0.95448099	 -1.0473633e-005	 47.725
0.95677953	 -8.9904785e-006	 47.84
0.95907807	 -7.9992676e-006	 47.955
0.96137661	 -7.0782471e-006	 48.07
0.96367516	 -6.0131836e-006	 48.185
0.9659737	 -4.8303223e-006	 48.3
0.96827224	 -3.6901855e-006	 48.415
0.97057078	 -2.8125e-006	 48.53
0.97286932	 -1.9506836e-006	 48.645
0.97516786	 -1.1419678e-006	 48.76
0.97748395	 -3.7658691e-007	 48.875
0.97978249	 4.6307373e-007	 48.99
0.98208103	 8.6871338e-007	 49.105
0.98437957	 1.210083e-006	 49.22
0.98667812	 1.7276611e-006	 49.335
0.9912752	 3.0145264e-006	 49.565
0.99357374	 3.3636475e-006	 49.68
0.99587228	 3.8043213e-006	 49.795
0.99817082	 4.163208e-006	 49.91
1.0004694	 4.4360352e-006	 50.025
1.0027679	 4.7967529e-006	 50.14
1.0050664	 4.9871826e-006	 50.255
1.007365	 4.9560547e-006	 50.37
1.0096635	 5.1824951e-006	 50.485
1.0119796	 5.637207e-006	 50.6
1.0142782	 6.0394287e-006	 50.715
1.0165767	 6.2054443e-006	 50.83
1.0188752	 6.4324951e-006	 50.945
1.0211738	 6.6113281e-006	 51.06
1.0234723	 6.6662598e-006	 51.175
1.0257709	 6.8261719e-006	 51.29
1.0280694	 6.9494629e-006	 51.405
1.0303679	 6.7645264e-006	 51.52
1.0326665	 6.8371582e-006	 51.635
1.034965	 7.0349121e-006	 51.75
1.0372636	 7.3431396e-006	 51.865
1.0395621	 7.4694824e-006	 51.98
1.0418607	 7.5646973e-006	 52.095
1.0441767	 7.7435303e-006	 52.21
1.0464753	 7.7636719e-006	 52.325
1.0487738	 7.8717041e-006	 52.44
1.0510724	 7.9650879e-006	 52.555
1.0533709	 7.7331543e-006	 52.67
1.0556694	 7.7215576e-006	 52.785
1.057968	 7.8692627e-006	 52.9
1.0602665	 8.1542969e-006	 53.015
1.0625651	 8.2189941e-006	 53.13
1.0648636	 8.2794189e-006	 53.245
1.0671622	 8.3770752e-006	 53.36
1.0694607	 8.3917236e-006	 53.475
1.0717592	 8.4240723e-006	 53.59
1.0740578	 8.4851074e-006	 53.705
1.0763739	 8.4063721e-006	 53.82
1.0786724	 8.3807373e-006	 53.935
1.080971	 8.5021973e-006	 54.05
1.0832695	 8.8049316e-006	 54.165
1.085568	 8.8818359e-006	 54.28
1.0878666	 8.9080811e-006	 54.395
1.0901651	 8.9959717e-006	 54.51
1.0924637	 9.0026855e-006	 54.625
1.0947622	 9.0002441e-006	 54.74
1.0970607	 9.0997314e-006	 54.855
1.0993593	 8.8952637e-006	 54.97
1.1016578	 8.8818359e-006	 55.085
1.1039564	 9.0185547e-006	 55.2
1.1062549	 9.2724609e-006	 55.315
1.1085534	 9.3566895e-006	 55.43
1.1108695	 9.5422363e-006	 55.545
1.1131681	 9.6087646e-006	 55.66
1.1154666	 9.6118164e-006	 55.775
1.1177652	 9.6783447e-006	 55.89
1.1200637	 9.7601318e-006	 56.005
1.1223622	 9.5318604e-006	 56.12
1.1246608	 9.5697021e-006	 56.235
1.1269593	 9.6728516e-006	 56.35
1.1292579	 9.9420166e-006	 56.465
1.1315564	 1.0029297e-005	 56.58
1.1338549	 1.0062866e-005	 56.695
1.1361535	 1.0184937e-005	 56.81
1.138452	 1.017395e-005	 56.925
1.1407506	 1.0283203e-005	 57.04
1.1430667	 1.0472412e-005	 57.155
1.1453652	 1.0281372e-005	 57.27
1.1476637	 1.0296631e-005	 57.385
1.1499623	 1.0432739e-005	 57.5
1.1522608	 1.0744629e-005	 57.615
1.1545594	 1.0789185e-005	 57.73
1.1568579	 1.0909424e-005	 57.845
1.1591564	 1.0957642e-005	 57.96
1.161455	 1.0988159e-005	 58.075
1.1637535	 1.1118774e-005	 58.19
1.1660521	 1.1181641e-005	 58.305
1.1683506	 1.0994873e-005	 58.42
1.1706492	 1.1043701e-005	 58.535
1.1729477	 1.12146e-005	 58.65
1.1752638	 1.166748e-005	 58.765
1.1775623	 1.1760254e-005	 58.88
1.1798609	 1.1851807e-005	 58.995
1.1821594	 1.1941528e-005	 59.11
1.184458	 1.2003784e-005	 59.225
1.1867565	 1.2213745e-005	 59.34
1.189055	 1.2175903e-005	 59.455
1.1913536	 1.2039795e-005	 59.57
1.1936521	 1.2111206e-005	 59.685
1.1959507	 1.2342529e-005	 59.8
1.1982492	 1.2682495e-005	 59.915
1.1993371	 9.9603271e-006	 60.03
1.197021	 8.0151367e-006	 60.145
1.1947224	 6.8481445e-006	 60.26
1.1924239	 5.9039307e-006	 60.375
1.1901253	 5.3173828e-006	 60.49
1.1878268	 4.4793701e-006	 60.605
1.1855283	 3.7988281e-006	 60.72
1.1832297	 3.3251953e-006	 60.835
1.1809312	 3.0230713e-006	 60.95
1.1786326	 2.8265381e-006	 61.065
1.1763341	 2.4591064e-006	 61.18
1.1740356	 2.2167969e-006	 61.295
1.171737	 1.930542e-006	 61.41
1.1694385	 1.6094971e-006	 61.525
1.1671399	 1.5869141e-006	 61.64
1.1648414	 1.1535645e-006	 61.755
1.1625253	 7.1838379e-007	 61.87
1.1602268	 5.5310059e-007	 61.985
1.1579282	 6.0064697e-007	 62.1
1.1556297	 5.3924561e-007	 62.215
1.1533311	 3.5290527e-007	 62.33
1.1510326	 3.223877e-007	 62.445
1.1487341	 1.8688965e-007	 62.56
1.1464355	 5.657959e-008	 62.675
1.1418384	 -2.7893066e-007	 62.905
1.1395399	 -4.6435547e-007	 63.02
1.1372413	 -5.3051758e-007	 63.135
1.1349428	 -3.862915e-007	 63.25
1.1326443	 -4.1082764e-007	 63.365
1.1303282	 -6.1962891e-007	 63.48
1.1280296	 -6.104126e-007	 63.595
1.1257311	 -6.9012451e-007	 63.71
1.1234326	 -7.7667236e-007	 63.825
1.121134	 -7.5140381e-007	 63.94
1.1188355	 -1.0043335e-006	 64.055
1.1165369	 -1.147583e-006	 64.17
1.1142384	 -1.1430664e-006	 64.285
1.1119398	 -9.8931885e-007	 64.4
1.1096413	 -1.0245361e-006	 64.515
1.1073428	 -1.0643921e-006	 64.63
1.1050442	 -1.0761108e-006	 64.745
1.1027457	 -1.1691284e-006	 64.86
1.1004471	 -1.1591187e-006	 64.975
1.0981311	 -1.2747803e-006	 65.09
1.0958325	 -1.578186e-006	 65.205
1.093534	 -1.6413574e-006	 65.32
1.0912354	 -1.6110229e-006	 65.435
1.0889369	 -1.4310913e-006	 65.55
1.0866383	 -1.5127563e-006	 65.665
1.0843398	 -1.4883423e-006	 65.78
1.0820413	 -1.5039673e-006	 65.895
1.0797427	 -1.5916748e-006	 66.01
1.0774442	 -1.5228271e-006	 66.125
1.0751456	 -1.6219482e-006	 66.24
1.0728471	 -1.8818359e-006	 66.355
1.0705486	 -1.9415283e-006	 66.47
1.06825	 -1.9226074e-006	 66.585
1.0659515	 -1.7474365e-006	 66.7
1.0636354	 -1.8597412e-006	 66.815
1.0613368	 -1.8682861e-006	 66.93
1.0590383	 -1.8945313e-006	 67.045
1.0567398	 -1.9494629e-006	 67.16
1.0544412	 -1.9342041e-006	 67.275
1.0521427	 -1.9903564e-006	 67.39
1.0498441	 -2.2485352e-006	 67.505
1.0475456	 -2.3272705e-006	 67.62
1.0452471	 -2.2631836e-006	 67.735
1.0429485	 -2.1435547e-006	 67.85
1.04065	 -2.1777344e-006	 67.965
1.0383514	 -2.1765137e-006	 68.08
1.0360529	 -2.2235107e-006	 68.195
1.0337543	 -2.3034668e-006	 68.31
1.0314383	 -2.2894287e-006	 68.425
1.0291397	 -2.479248e-006	 68.54
1.0268412	 -2.7026367e-006	 68.655
1.0245426	 -2.7685547e-006	 68.77
1.0222441	 -2.6940918e-006	 68.885
1.0199456	 -2.5793457e-006	 69
1.017647	 -2.6507568e-006	 69.115
1.0153485	 -2.6702881e-006	 69.23
1.0130499	 -2.7056885e-006	 69.345
1.0107514	 -2.8161621e-006	 69.46
1.0084528	 -2.7026367e-006	 69.575
1.0061543	 -2.9394531e-006	 69.69
1.0038558	 -3.1573486e-006	 69.805
1.0015572	 -3.2183838e-006	 69.92
0.99924114	 -3.2342529e-006	 70.035
0.99694259	 -3.1420898e-006	 70.15
0.99464405	 -3.3190918e-006	 70.265
0.99234551	 -3.3074951e-006	 70.38
0.99004697	 -3.4020996e-006	 70.495
0.98774843	 -3.5443115e-006	 70.61
0.98544989	 -3.4332275e-006	 70.725
0.98315135	 -3.7225342e-006	 70.84
0.98085281	 -3.9770508e-006	 70.955
0.97855426	 -4.0710449e-006	 71.07
0.97625572	 -4.0637207e-006	 71.185
0.97395718	 -4.0270996e-006	 71.3
0.97165864	 -4.2156982e-006	 71.415
0.9693601	 -4.2730713e-006	 71.53
0.96706156	 -4.4421387e-006	 71.645
0.96474547	 -4.7375488e-006	 71.76
0.96244693	 -4.7619629e-006	 71.875
0.96014839	 -5.1074219e-006	 71.99
0.95784985	 -5.4443359e-006	 72.105
0.9555513	 -5.6134033e-006	 72.22
0.95325276	 -5.6970215e-006	 72.335
0.95095422	 -5.8068848e-006	 72.45
0.94865568	 -6.1206055e-006	 72.565
0.94635714	 -6.3226318e-006	 72.68
0.9440586	 -6.6497803e-006	 72.795
0.94176006	 -6.9873047e-006	 72.91
0.93946151	 -7.2314453e-006	 73.025
0.93716297	 -7.791748e-006	 73.14
0.93486443	 -8.3056641e-006	 73.255
0.93254834	 -8.8232422e-006	 73.37
0.9302498	 -9.0917969e-006	 73.485
0.92795126	 -9.5587158e-006	 73.6
0.92565272	 -1.0140381e-005	 73.715
0.92335418	 -1.0652466e-005	 73.83
0.92105564	 -1.1331787e-005	 73.945
0.9187571	 -1.2028198e-005	 74.06
0.91645855	 -1.2735596e-005	 74.175
0.91416001	 -1.3743896e-005	 74.29
0.91186147	 -1.4685059e-005	 74.405
0.90956293	 -1.55896e-005	 74.52
0.90726439	 -1.6381226e-005	 74.635
0.90496585	 -1.7474365e-005	 74.75
0.90266731	 -1.864502e-005	 74.865
0.90035122	 -1.9866943e-005	 74.98
0.89805268	 -2.1252441e-005	 75.095
0.89575414	 -2.2705078e-005	 75.21
0.89345559	 -2.4200439e-005	 75.325
0.89115705	 -2.6013184e-005	 75.44
0.88885851	 -2.7801514e-005	 75.555
0.88655997	 -2.9589844e-005	 75.67
0.88426143	 -3.1359863e-005	 75.785
0.88196289	 -3.3416748e-005	 75.9
0.87966435	 -3.5656738e-005	 76.015
0.87736581	 -3.7969971e-005	 76.13
0.87506726	 -4.0441895e-005	 76.245
0.87276872	 -4.2993164e-005	 76.36
0.87047018	 -4.5648193e-005	 76.475
0.86817164	 -4.8626709e-005	 76.59
0.86585555	 -5.1660156e-005	 76.705
0.86355701	 -5.4577637e-005	 76.82
0.86125847	 -5.748291e-005	 76.935
0.85895993	 -6.0760498e-005	 77.05
0.85666139	 -6.40625e-005	 77.165
0.85436285	 -6.7474365e-005	 77.28
0.8520643	 -7.1014404e-005	 77.395
0.84976576	 -7.4633789e-005	 77.51
0.84746722	 -7.8308105e-005	 77.625
0.84516868	 -8.2324219e-005	 77.74
0.84287014	 -8.6187744e-005	 77.855
0.8405716	 -8.996582e-005	 77.97
0.83827306	 -9.3695068e-005	 78.085
0.83597451	 -9.7570801e-005	 78.2
0.83365843	 -0.00010165405	 78.315
0.83135989	 -0.00010566406	 78.43
0.82906134	 -0.0001097168	 78.545
0.8267628	 -0.00011368408	 78.66
0.82446426	 -0.00011765747	 78.775
0.82216572	 -0.00012188721	 78.89
0.81986718	 -0.00012590942	 79.005
0.81756864	 -0.0001296875	 79.12
0.8152701	 -0.00013320313	 79.235
0.81297155	 -0.0001369812	 79.35
0.81067301	 -0.00014081421	 79.465
0.80837447	 -0.0001446167	 79.58
0.80607593	 -0.0001484314	 79.695
0.80377739	 -0.0001520813	 79.81
0.80147885	 -0.00015558472	 79.925
0.79916276	 -0.00015961304	 80.04
0.79686422	 -0.0001630249	 80.155
0.79456568	 -0.00016617432	 80.27
0.79226714	 -0.00016930542	 80.385
0.78996859	 -0.00017250366	 80.5
0.78767005	 -0.00017561035	 80.615
0.78537151	 -0.00017879028	 80.73
0.78307297	 -0.00018200073	 80.845
0.78077443	 -0.00018499756	 80.96
0.77847589	 -0.00018768311	 81.075
0.77617735	 -0.00019073486	 81.19
0.77387881	 -0.00019348145	 81.305
0.77158026	 -0.00019610596	 81.42
0.76928172	 -0.0001987915	 81.535
0.76696564	 -0.00020147705	 81.65
0.76466709	 -0.00020385742	 81.765
0.76236855	 -0.00020635986	 81.88
0.76007001	 -0.00020874023	 81.995
0.75777147	 -0.00021136475	 82.11
0.75547293	 -0.00021343994	 82.225
0.75317439	 -0.00021563721	 82.34
0.75087585	 -0.00021765137	 82.455
0.7485773	 -0.00021960449	 82.57
0.74627876	 -0.00022149658	 82.685
0.74398022	 -0.00022369385	 82.8
0.74168168	 -0.00022576904	 82.915
0.73938314	 -0.0002276001	 83.03
0.7370846	 -0.00022943115	 83.145
0.73476851	 -0.00023126221	 83.26
0.73246997	 -0.00023272705	 83.375
0.73017143	 -0.00023443604	 83.49
0.72787289	 -0.00023620605	 83.605
0.72557434	 -0.00023815918	 83.72
0.7232758	 -0.00023974609	 83.835
0.72097726	 -0.00024139404	 83.95
0.71867872	 -0.00024261475	 84.065
0.71638018	 -0.00024359131	 84.18
0.71408164	 -0.00024511719	 84.295
0.7117831	 -0.000246521	 84.41
0.70948455	 -0.00024768066	 84.525
0.70718601	 -0.00024841309	 84.64
0.70488747	 -0.00024932861	 84.755
0.70258893	 -0.00025048828	 84.87
0.70027284	 -0.0002520752	 84.985
0.6979743	 -0.00025402832	 85.1
0.69567576	 -0.00025653076	 85.215
0.69337722	 -0.00025689697	 85.33
0.69107868	 -0.00025695801	 85.445
0.68878014	 -0.00025769043	 85.56
0.6864816	 -0.00025854492	 85.675
0.68418305	 -0.00026019287	 85.79
0.68188451	 -0.00026171875	 85.905
0.67958597	 -0.00026306152	 86.02
0.67728743	 -0.0002645874	 86.135
0.67498889	 -0.00026586914	 86.25
0.67269035	 -0.00026678467	 86.365
0.67039181	 -0.00026794434	 86.48
0.66807572	 -0.00026873779	 86.595
0.66577718	 -0.00026928711	 86.71
0.66347864	 -0.00027020264	 86.825
0.66118009	 -0.00027148438	 86.94
0.65888155	 -0.00027246094	 87.055
0.65658301	 -0.00027362061	 87.17
0.65428447	 -0.0002746582	 87.285
0.65198593	 -0.00027593994	 87.4
0.64968739	 -0.00027679443	 87.515
0.64738885	 -0.0002767334	 87.63
0.6450903	 -0.00027734375	 87.745
0.64279176	 -0.00027813721	 87.86
0.64049322	 -0.00027868652	 87.975
0.63819468	 -0.00027972412	 88.09
0.63587859	 -0.00028082275	 88.205
0.63358005	 -0.00028155518	 88.32
0.63128151	 -0.00028240967	 88.435
0.62898297	 -0.00028271484	 88.55
0.62668443	 -0.00028344727	 88.665
0.62438589	 -0.00028424072	 88.78
0.62208734	 -0.00028485107	 88.895
0.6197888	 -0.00028564453	 89.01
0.61749026	 -0.00028613281	 89.125
0.61519172	 -0.00028625488	 89.24
0.61289318	 -0.00028631592	 89.355
0.61059464	 -0.0002868042	 89.47
0.6082961	 -0.00028765869	 89.585
0.60599755	 -0.00028820801	 89.7
0.60369901	 -0.00028833008	 89.815
0.60138293	 -0.00028894043	 89.93
0.59908438	 -0.00028985596	 90.045
0.59678584	 -0.00029064941	 90.16
0.5944873	 -0.0002913208	 90.275
0.59218876	 -0.0002923584	 90.39
0.58989022	 -0.00029327393	 90.505
0.58759168	 -0.0002956543	 90.62
0.58529314	 -0.00029449463	 90.735
0.5829946	 -0.0002923584	 90.85
0.58069605	 -0.00029138184	 90.965
0.57839751	 -0.00029364014	 91.08
0.57609897	 -0.00029498291	 91.195
0.57380043	 -0.00029608154	 91.31
0.57150189	 -0.00029675293	 91.425
0.5691858	 -0.00029766846	 91.54
0.56688726	 -0.00029772949	 91.655
0.56458872	 -0.00029748535	 91.77
0.56229018	 -0.00029730225	 91.885
0.55999164	 -0.00029766846	 92
0.55769309	 -0.00029833984	 92.115
0.55539455	 -0.00029882813	 92.23
0.55309601	 -0.0002989502	 92.345
0.55079747	 -0.00029925537	 92.46
0.54849893	 -0.00029937744	 92.575
0.54620039	 -0.000300354	 92.69
0.54390185	 -0.00030175781	 92.805
0.5416033	 -0.0003024292	 92.92
0.53930476	 -0.00030297852	 93.035
0.53698868	 -0.00030383301	 93.15
0.53469013	 -0.00030426025	 93.265
0.53239159	 -0.00030432129	 93.38
0.53009305	 -0.00030499268	 93.495
0.52779451	 -0.00030596924	 93.61
0.52549597	 -0.00030615234	 93.725
0.52319743	 -0.00030603027	 93.84
0.52089889	 -0.00030560303	 93.955
0.51860034	 -0.0003059082	 94.07
0.5163018	 -0.00030688477	 94.185
0.51400326	 -0.00030743408	 94.3
0.51170472	 -0.00030780029	 94.415
0.50940618	 -0.00030792236	 94.53
0.50710764	 -0.00030804443	 94.645
0.5048091	 -0.00030865479	 94.76
0.50249301	 -0.00030963135	 94.875
0.50019447	 -0.00030981445	 94.99
0.49789593	 -0.00030969238	 95.105
0.49559738	 -0.00030957031	 95.22
0.49329884	 -0.00030932617	 95.335
0.4910003	 -0.00030944824	 95.45
0.48870176	 -0.00030963135	 95.565
0.48640322	 -0.00030993652	 95.68
0.48410468	 -0.00031030273	 95.795
0.48180614	 -0.00031091309	 95.91
0.4795076	 -0.00031109619	 96.025
0.47720905	 -0.0003114624	 96.14
0.47491051	 -0.00031188965	 96.255
0.47261197	 -0.00031243896	 96.37
0.47029588	 -0.00031256104	 96.485
0.46799734	 -0.00031213379	 96.6
0.4656988	 -0.00031164551	 96.715
0.46340026	 -0.00031268311	 96.83
0.46110172	 -0.00031317139	 96.945
0.45880318	 -0.0003137207	 97.06
0.45650464	 -0.0003137207	 97.175
0.45420609	 -0.00031414795	 97.29
0.45190755	 -0.00031427002	 97.405
0.44960901	 -0.00031524658	 97.52
0.44731047	 -0.00031591797	 97.635
0.44501193	 -0.00031549072	 97.75
0.44271339	 -0.00031561279	 97.865
0.44041485	 -0.00031542969	 97.98
0.43809876	 -0.00031738281	 98.095
0.43580022	 -0.00031781006	 98.21
0.43350168	 -0.00031774902	 98.325
0.43120313	 -0.00031854248	 98.44
0.42890459	 -0.00031921387	 98.555
0.42660605	 -0.00031915283	 98.67
0.42430751	 -0.00031872559	 98.785
0.42200897	 -0.00031811523	 98.9
0.41971043	 -0.00031903076	 99.015
0.41741189	 -0.00031939697	 99.13
0.41511334	 -0.0003192749	 99.245
0.4128148	 -0.00031903076	 99.36
0.41051626	 -0.00032000732	 99.475
0.40821772	 -0.00031976318	 99.59
0.40591918	 -0.0003190918	 99.705
0.40360309	 -0.00032025146	 99.82
0.40130455	 -0.00032055664	 99.935
0.39900601	 -0.00031982422	 100.05
0.39670747	 -0.00031896973	 100.165
0.39440893	 -0.00031878662	 100.28
0.39211039	 -0.00031848145	 100.395
0.38981184	 -0.00031854248	 100.51
0.3875133	 -0.00031817627	 100.625
0.38521476	 -0.00031835938	 100.74
0.38291622	 -0.00031945801	 100.855
0.38061768	 -0.00032061768	 100.97
0.37831914	 -0.00032049561	 101.085
0.3760206	 -0.00031988525	 101.2
0.37372205	 -0.00031976318	 101.315
0.37140597	 -0.00032012939	 101.43
0.36910743	 -0.0003213501	 101.545
0.36680888	 -0.00032269287	 101.66
0.36451034	 -0.00032348633	 101.775
0.3622118	 -0.00032336426	 101.89
0.35991326	 -0.00032275391	 102.005
0.35761472	 -0.00032287598	 102.12
0.35531618	 -0.00032354736	 102.235
0.35301764	 -0.00032434082	 102.35
0.35071909	 -0.00032421875	 102.465
0.34842055	 -0.0003237915	 102.58
0.34612201	 -0.00032458496	 102.695
0.34382347	 -0.00032476807	 102.81
0.34152493	 -0.000324646	 102.925
0.33922639	 -0.00032525635	 103.04
0.3369103	 -0.00032501221	 103.155
0.33461176	 -0.00031994629	 103.27
0.33231322	 -0.00032061768	 103.385
0.33001468	 -0.00032281494	 103.5
0.32771613	 -0.00032415771	 103.615
0.32541759	 -0.00032525635	 103.73
0.32311905	 -0.00032592773	 103.845
0.32082051	 -0.00032635498	 103.96
0.31852197	 -0.00032678223	 104.075
0.31622343	 -0.0003270874	 104.19
0.31392489	 -0.00032775879	 104.305
0.31162634	 -0.00032592773	 104.42
0.3093278	 -0.00032598877	 104.535
0.30702926	 -0.00032775879	 104.65
0.30471317	 -0.00032659912	 104.765
0.30241463	 -0.00032659912	 104.88
0.30011609	 -0.00032659912	 104.995
0.29781755	 -0.00032733154	 105.11
0.29551901	 -0.00032775879	 105.225
0.29322047	 -0.00032836914	 105.34
0.29092193	 -0.00032855225	 105.455
0.28862339	 -0.00032873535	 105.57
0.28632484	 -0.00032855225	 105.685
0.2840263	 -0.00032800293	 105.8
0.28172776	 -0.00032904053	 105.915
0.27942922	 -0.00032904053	 106.03
0.27713068	 -0.00032891846	 106.145
0.27483214	 -0.00032836914	 106.26
0.27251605	 -0.00032702637	 106.375
0.27021751	 -0.00032830811	 106.49
0.26791897	 -0.00032910156	 106.605
0.26562043	 -0.00033026123	 106.72
0.26332188	 -0.00032995605	 106.835
0.26102334	 -0.00032958984	 106.95
0.2587248	 -0.00033001709	 107.065
0.25642626	 -0.00033050537	 107.18
0.25412772	 -0.00033044434	 107.295
0.25182918	 -0.0003303833	 107.41
0.24953064	 -0.00032897949	 107.525
0.24723209	 -0.00032904053	 107.64
0.24493355	 -0.00032995605	 107.755
0.24263501	 -0.0003303833	 107.87
0.24033647	 -0.00033032227	 107.985
0.23802038	 -0.0003303833	 108.1
0.23572184	 -0.00033099365	 108.215
0.2334233	 -0.00033074951	 108.33
0.23112476	 -0.0003302002	 108.445
0.22882622	 -0.0003293457	 108.56
0.22652768	 -0.00032952881	 108.675
0.22422913	 -0.00033007813	 108.79
0.22193059	 -0.00033087158	 108.905
0.21963205	 -0.00033117676	 109.02
0.21733351	 -0.00033032227	 109.135
0.21503497	 -0.0003291626	 109.25
0.21273643	 -0.00032873535	 109.365
0.21043789	 -0.00032849121	 109.48
0.20813935	 -0.00032922363	 109.595
0.20582326	 -0.00033007813	 109.71
0.20352472	 -0.00032971191	 109.825
0.20122617	 -0.0003302002	 109.94
0.19892763	 -0.0003302002	 110.055
0.19662909	 -0.00032977295	 110.17
0.19433055	 -0.0003293457	 110.285
0.19203201	 -0.00032928467	 110.4
0.18973347	 -0.00032897949	 110.515
0.18743493	 -0.0003291626	 110.63
0.18513639	 -0.0003291626	 110.745
0.18283784	 -0.00032855225	 110.86
0.1805393	 -0.00032727051	 110.975
0.17824076	 -0.00032775879	 111.09
0.17594222	 -0.00032830811	 111.205
0.17362613	 -0.00032891846	 111.32
0.17132759	 -0.00032873535	 111.435
0.16902905	 -0.00032861328	 111.55
0.16673051	 -0.00032861328	 111.665
0.16443197	 -0.00032818604	 111.78
0.16213343	 -0.00032873535	 111.895
0.15983488	 -0.00032958984	 112.01
0.15753634	 -0.00033007813	 112.125
0.1552378	 -0.00033050537	 112.24
0.15293926	 -0.00033074951	 112.355
0.15064072	 -0.00033026123	 112.47
0.14834218	 -0.00032946777	 112.585
0.14604364	 -0.00032897949	 112.7
0.14374509	 -0.00032885742	 112.815
0.14144655	 -0.00032928467	 112.93
0.13913047	 -0.00032995605	 113.045
0.13683192	 -0.00032989502	 113.16
0.13453338	 -0.00032879639	 113.275
0.13223484	 -0.00032775879	 113.39
0.1299363	 -0.00032617188	 113.505
0.12763776	 -0.00032562256	 113.62
0.12533922	 -0.00032568359	 113.735
0.12304068	 -0.00032635498	 113.85
0.12074213	 -0.00032769775	 113.965
0.11844359	 -0.00032879639	 114.08
0.11614505	 -0.00032940674	 114.195
0.11384651	 -0.00032983398	 114.31
0.11154797	 -0.00032885742	 114.425
0.10924943	 -0.00032904053	 114.54
0.10693334	 -0.00033032227	 114.655
0.1046348	 -0.00033068848	 114.77
0.10233626	 -0.00032989502	 114.885
0.10003772	 -0.00032940674	 115
0.097756721	 -0.00032928467	 0
0.09545818	 -0.00032910156	 0.11500013
0.093159638	 -0.00032885742	 0.23000026
0.090861097	 -0.00032843018	 0.34499976
0.088545009	 -0.00032775879	 0.45999989
0.086246468	 -0.0003270874	 0.57500002
0.083947927	 -0.00032611084	 0.69000016
0.081649385	 -0.0003270874	 0.80500029
0.079350844	 -0.000328125	 0.91999979
0.077052303	 -0.00032861328	 1.0349999
0.074753761	 -0.00032781982	 1.15
0.07245522	 -0.00032733154	 1.2650002
0.070156679	 -0.00032684326	 1.3800003
0.067858137	 -0.00032659912	 1.4949998
0.065559596	 -0.0003269043	 1.6099999
0.063261054	 -0.00032714844	 1.7250001
0.060962513	 -0.00032678223	 1.8400002
0.058663972	 -0.00032531738	 1.9549997
0.05636543	 -0.00032434082	 2.0699998
0.054049343	 -0.00032427979	 2.185
0.051750802	 -0.00032373047	 2.3000001
0.050662942	 -0.00031634521	 2.4150002
0.05297903	 -0.00031347656	 2.5299997
0.055277571	 -0.00031268311	 2.6449999
0.057576112	 -0.00031237793	 2.76
0.059874654	 -0.0003125	 2.8750001
0.062173195	 -0.00031237793	 2.9900003
0.064471737	 -0.00031011963	 3.1049998
0.066770278	 -0.00031030273	 3.2199999
0.069068819	 -0.0003112793	 3.335
0.071367361	 -0.00031262207	 3.4500001
0.073665902	 -0.00031365967	 3.5650003
0.075964443	 -0.00031390381	 3.6799998
0.078262985	 -0.0003145752	 3.7949999
0.080561526	 -0.00031549072	 3.91
0.082860067	 -0.00031518555	 4.0250002
0.085158609	 -0.0003182373	 4.1400003
0.087474696	 -0.00031365967	 4.2549998
0.089773238	 -0.00031530762	 4.3699999
0.092071779	 -0.00031420898	 4.4850001
0.09437032	 -0.00031237793	 4.6000002
0.096668862	 -0.00031390381	 4.7150003
0.098967403	 -0.00031414795	 4.8299998
0.10126594	 -0.00031481934	 4.945
0.10356449	 -0.00031530762	 5.0600001
0.10586303	 -0.00031640625	 5.1750002
0.10816157	 -0.00031750488	 5.2899997
0.11046011	 -0.00031768799	 5.4049999
0.11275865	 -0.00031738281	 5.52
0.11505719	 -0.00031671143	 5.6350001
0.11735573	 -0.00031585693	 5.7500002
0.11967182	 -0.00031524658	 5.8649997
0.12197036	 -0.00031549072	 5.9799999
0.1242689	 -0.0003157959	 6.095
0.12656745	 -0.00031652832	 6.2100001
0.12886599	 -0.00031713867	 6.3250003
0.13116453	 -0.00031744385	 6.4399998
0.13346307	 -0.0003180542	 6.5549999
0.13576161	 -0.00031854248	 6.67
0.13806015	 -0.00031915283	 6.7850002
0.14035869	 -0.00031988525	 6.9000003
0.14265724	 -0.00031976318	 7.0149998
0.14495578	 -0.00032019043	 7.1299999
0.14725432	 -0.00032025146	 7.2450001
0.14955286	 -0.00032019043	 7.3600002
0.15186895	 -0.00032037354	 7.4750003
0.15416749	 -0.00032116699	 7.5899998
0.15646603	 -0.00032086182	 7.7049999
0.15876457	 -0.0003203125	 7.8200001
0.16106311	 -0.0003203125	 7.9350002
0.16336165	 -0.0003203125	 8.0499997
0.1656602	 -0.00032037354	 8.1649998
0.16795874	 -0.00032055664	 8.28
0.17025728	 -0.00032110596	 8.3950001
0.17255582	 -0.00032128906	 8.5100002
0.17485436	 -0.00032214355	 8.6249997
0.1771529	 -0.00032244873	 8.7399999
0.17945144	 -0.00032250977	 8.855
0.18174998	 -0.0003223877	 8.9700001
0.18404853	 -0.0003225708	 9.0850003
0.18636461	 -0.00032244873	 9.1999998
0.18866315	 -0.00032269287	 9.3149999
0.1909617	 -0.00032305908	 9.43
0.19326024	 -0.00032330322	 9.5450002
0.19555878	 -0.00032348633	 9.6600003
0.19785732	 -0.00032385254	 9.7749998
0.20015586	 -0.00032434082	 9.8899999
0.2024544	 -0.00032452393	 10.005
0.20475294	 -0.00032458496	 10.12
0.20705149	 -0.00032470703	 10.235
0.20935003	 -0.0003248291	 10.35
0.21164857	 -0.00032458496	 10.465
0.21394711	 -0.00032470703	 10.58
0.21624565	 -0.00032519531	 10.695
0.21856174	 -0.00032519531	 10.81
0.22086028	 -0.00032574463	 10.925
0.22315882	 -0.00032580566	 11.04
0.22545736	 -0.00032562256	 11.155
0.2277559	 -0.00032568359	 11.27
0.23005445	 -0.00032562256	 11.385
0.23235299	 -0.00032562256	 11.5
0.23465153	 -0.00032574463	 11.615
0.23695007	 -0.00032562256	 11.73
0.23924861	 -0.00032568359	 11.845
0.24154715	 -0.00032537842	 11.96
0.24384569	 -0.0003258667	 12.075
0.24614424	 -0.00032592773	 12.19
0.24844278	 -0.00032647705	 12.305
0.25075886	 -0.00032580566	 12.42
0.25305741	 -0.00032562256	 12.535
0.25535595	 -0.00032574463	 12.65
0.25765449	 -0.00032592773	 12.765
0.25995303	 -0.00032623291	 12.88
0.26225157	 -0.00032623291	 12.995
0.26455011	 -0.00032666016	 13.11
0.26684865	 -0.00032733154	 13.225
0.26914719	 -0.00032775879	 13.34
0.27144574	 -0.00032781982	 13.455
0.27374428	 -0.00032769775	 13.57
0.27604282	 -0.00032763672	 13.685
0.27834136	 -0.00032781982	 13.8
0.2806399	 -0.00032757568	 13.915
0.28293844	 -0.00032757568	 14.03
0.28525453	 -0.00032775879	 14.145
0.28755307	 -0.00032806396	 14.26
0.28985161	 -0.00032824707	 14.375
0.29215015	 -0.00032781982	 14.49
0.2944487	 -0.00032800293	 14.605
0.29674724	 -0.00032830811	 14.72
0.29904578	 -0.00032836914	 14.835
0.30134432	 -0.00032836914	 14.95
0.30364286	 -0.00032806396	 15.065
0.3059414	 -0.00032769775	 15.18
0.30823994	 -0.00032794189	 15.295
0.31053849	 -0.00032800293	 15.41
0.31283703	 -0.00032830811	 15.525
0.31513557	 -0.00032855225	 15.64
0.31745166	 -0.000328125	 15.755
0.3197502	 -0.00032788086	 15.87
0.32204874	 -0.00032769775	 15.985
0.32434728	 -0.00032763672	 16.1
0.32664582	 -0.00032727051	 16.215
0.32894436	 -0.00032727051	 16.33
0.3312429	 -0.00032739258	 16.445
0.33354145	 -0.00032745361	 16.56
0.33583999	 -0.00032739258	 16.675
0.33813853	 -0.00032781982	 16.79
0.34043707	 -0.00032763672	 16.905
0.34273561	 -0.00032745361	 17.02
0.34503415	 -0.00032678223	 17.135
0.34733269	 -0.00032629395	 17.25
0.34964878	 -0.00032531738	 17.365
0.35194732	 -0.00032556152	 17.48
0.35424586	 -0.00032617188	 17.595
0.35654441	 -0.00032647705	 17.71
0.35884295	 -0.00032659912	 17.825
0.36114149	 -0.00032696533	 17.94
0.36344003	 -0.00032629395	 18.055
0.36573857	 -0.00032470703	 18.17
0.36803711	 -0.00032366943	 18.285
0.37033565	 -0.00032354736	 18.4
0.37263419	 -0.0003236084	 18.515
0.37493274	 -0.00032336426	 18.63
0.37723128	 -0.00032293701	 18.745
0.37952982	 -0.00032196045	 18.86
0.38182836	 -0.00032226563	 18.975
0.38414445	 -0.00032373047	 19.09
0.38644299	 -0.00032427979	 19.205
0.38874153	 -0.00032458496	 19.32
0.39104007	 -0.00032440186	 19.435
0.39333861	 -0.00032452393	 19.55
0.39563715	 -0.00032421875	 19.665
0.3979357	 -0.00032403564	 19.78
0.40023424	 -0.00032366943	 19.895
0.40253278	 -0.00032373047	 20.01
0.40483132	 -0.00032354736	 20.125
0.40712986	 -0.00032366943	 20.24
0.4094284	 -0.00032336426	 20.355
0.41172694	 -0.00032305908	 20.47
0.41402549	 -0.00032269287	 20.585
0.41634157	 -0.00032263184	 20.7
0.41864011	 -0.0003223877	 20.815
0.42093866	 -0.00032232666	 20.93
0.4232372	 -0.0003223877	 21.045
0.42553574	 -0.00032232666	 21.16
0.42783428	 -0.00032196045	 21.275
0.43013282	 -0.00032177734	 21.39
0.43243136	 -0.00032110596	 21.505
0.4347299	 -0.00032055664	 21.62
0.43702845	 -0.00032006836	 21.735
0.43932699	 -0.00032000732	 21.85
0.44162553	 -0.00032006836	 21.965
0.44392407	 -0.00031988525	 22.08
0.44622261	 -0.00031994629	 22.195
0.44852115	 -0.00031982422	 22.31
0.45083724	 -0.00031976318	 22.425
0.45313578	 -0.00031945801	 22.54
0.45543432	 -0.00031842041	 22.655
0.45773286	 -0.00031835938	 22.77
0.46003141	 -0.00031787109	 22.885
0.46232995	 -0.00031793213	 23
0.46462849	 -0.00031774902	 23.115
0.46692703	 -0.00031781006	 23.23
0.46922557	 -0.00031793213	 23.345
0.47152411	 -0.00031756592	 23.46
0.47382265	 -0.00031750488	 23.575
0.47612119	 -0.00031732178	 23.69
0.47841974	 -0.00031671143	 23.805
0.48071828	 -0.00031634521	 23.92
0.48303436	 -0.0003157959	 24.035
0.48533291	 -0.00031585693	 24.15
0.48763145	 -0.00031585693	 24.265
0.48992999	 -0.000315979	 24.38
0.49222853	 -0.0003157959	 24.495
0.49452707	 -0.00031506348	 24.61
0.49682561	 -0.00031512451	 24.725
0.49912415	 -0.00031469727	 24.84
0.5014227	 -0.00031427002	 24.955
0.50372124	 -0.00031365967	 25.07
0.50601978	 -0.00031286621	 25.185
0.50831832	 -0.00031225586	 25.3
0.51061686	 -0.00031195068	 25.415
0.5129154	 -0.00031164551	 25.53
0.51523149	 -0.00031134033	 25.645
0.51753003	 -0.00031097412	 25.76
0.51982857	 -0.00031103516	 25.875
0.52212711	 -0.00031103516	 25.99
0.52442566	 -0.00031085205	 26.105
0.5267242	 -0.0003104248	 26.22
0.52902274	 -0.00031005859	 26.335
0.53132128	 -0.00030969238	 26.45
0.53361982	 -0.00030950928	 26.565
0.53591836	 -0.00030926514	 26.68
0.5382169	 -0.00030871582	 26.795
0.54051545	 -0.00030828857	 26.91
0.54281399	 -0.00030804443	 27.025
0.54511253	 -0.0003081665	 27.14
0.54741107	 -0.00030847168	 27.255
0.54972716	 -0.0003081665	 27.37
0.5520257	 -0.00030773926	 27.485
0.55432424	 -0.00030725098	 27.6
0.55662278	 -0.00030718994	 27.715
0.55892132	 -0.00030706787	 27.83
0.56121986	 -0.0003069458	 27.945
0.5635184	 -0.00030664063	 28.06
0.56581695	 -0.00030670166	 28.175
0.56811549	 -0.00030621338	 28.29
0.57041403	 -0.0003059082	 28.405
0.57271257	 -0.00030523682	 28.52
0.57501111	 -0.00030493164	 28.635
0.57730965	 -0.00030444336	 28.75
0.57960819	 -0.00030395508	 28.865
0.58192428	 -0.00030340576	 28.98
0.58422282	 -0.00030316162	 29.095
0.58652136	 -0.00030249023	 29.21
0.58881991	 -0.00030200195	 29.325
0.59111845	 -0.00030157471	 29.44
0.59341699	 -0.00030096436	 29.555
0.59571553	 -0.00030029297	 29.67
0.59801407	 -0.00029980469	 29.785
0.60031261	 -0.00029968262	 29.9
0.60261115	 -0.00029937744	 30.015
0.6049097	 -0.00029931641	 30.13
0.60720824	 -0.00029882813	 30.245
0.60950678	 -0.00029821777	 30.36
0.61180532	 -0.00029772949	 30.475
0.61412141	 -0.00029693604	 30.59
0.61641995	 -0.00029614258	 30.705
0.61871849	 -0.0002956543	 30.82
0.62101703	 -0.00029571533	 30.935
0.62331557	 -0.00029516602	 31.05
0.62561411	 -0.00029492188	 31.165
0.62791266	 -0.00029437256	 31.28
0.6302112	 -0.00029364014	 31.395
0.63250974	 -0.00029302979	 31.51
0.63480828	 -0.00029241943	 31.625
0.63710682	 -0.00029174805	 31.74
0.63940536	 -0.00029107666	 31.855
0.6417039	 -0.00029022217	 31.97
0.64400245	 -0.00028942871	 32.085
0.64630099	 -0.00028857422	 32.2
0.64861707	 -0.00028759766	 32.315
0.65091562	 -0.0002869873	 32.43
0.65321416	 -0.00028619385	 32.545
0.6555127	 -0.00028631592	 32.66
0.65781124	 -0.00028625488	 32.775
0.66010978	 -0.00028601074	 32.89
0.66240832	 -0.00028503418	 33.005
0.66470686	 -0.00028430176	 33.12
0.6670054	 -0.00028381348	 33.235
0.66930395	 -0.00028302002	 33.35
0.67160249	 -0.00028222656	 33.465
0.67390103	 -0.00028155518	 33.58
0.67619957	 -0.00028057861	 33.695
0.67849811	 -0.00028039551	 33.81
0.6808142	 -0.00027947998	 33.925
0.68311274	 -0.00027868652	 34.04
0.68541128	 -0.0002779541	 34.155
0.68770982	 -0.00027697754	 34.27
0.69000836	 -0.00027624512	 34.385
0.69230691	 -0.00027496338	 34.5
0.69460545	 -0.00027362061	 34.615
0.69690399	 -0.00027288818	 34.73
0.69920253	 -0.00027209473	 34.845
0.70150107	 -0.00027124023	 34.96
0.70379961	 -0.00027081299	 35.075
0.70609815	 -0.0002701416	 35.19
0.7083967	 -0.00026922607	 35.305
0.71069524	 -0.0002678833	 35.42
0.71301132	 -0.0002666626	 35.535
0.71530987	 -0.00026568604	 35.65
0.71760841	 -0.00026446533	 35.765
0.71990695	 -0.00026348877	 35.88
0.72220549	 -0.00026239014	 35.995
0.72450403	 -0.0002612915	 36.11
0.72680257	 -0.00026043701	 36.225
0.72910111	 -0.00025952148	 36.34
0.73139966	 -0.00025836182	 36.455
0.7336982	 -0.00025708008	 36.57
0.73599674	 -0.00025518799	 36.685
0.73829528	 -0.00025378418	 36.8
0.74059382	 -0.00025292969	 36.915
0.74289236	 -0.00025231934	 37.03
0.7451909	 -0.00025134277	 37.145
0.74750699	 -0.00024963379	 37.26
0.74980553	 -0.00024822998	 37.375
0.75210407	 -0.00024688721	 37.49
0.75440262	 -0.00024542236	 37.605
0.75670116	 -0.00024389648	 37.72
0.7589997	 -0.00024237061	 37.835
0.76129824	 -0.00024060059	 37.95
0.76359678	 -0.00023876953	 38.065
0.76589532	 -0.00023669434	 38.18
0.76819386	 -0.00023510742	 38.295
0.7704924	 -0.0002333374	 38.41
0.77279095	 -0.00023254395	 38.525
0.77508949	 -0.00023138428	 38.64
0.77738803	 -0.00022949219	 38.755
0.77970412	 -0.00022735596	 38.87
0.78200266	 -0.00022528076	 38.985
0.7843012	 -0.0002232666	 39.1
0.78659974	 -0.0002210083	 39.215
0.78889828	 -0.00021917725	 39.33
0.79119682	 -0.00021716309	 39.445
0.79349536	 -0.00021496582	 39.56
0.79579391	 -0.00021270752	 39.675
0.79809245	 -0.00021075439	 39.79
0.80039099	 -0.00020855713	 39.905
0.80268953	 -0.00020617676	 40.02
0.80498807	 -0.00020361328	 40.135
0.80728661	 -0.00020111084	 40.25
0.80958515	 -0.00019842529	 40.365
0.81190124	 -0.00019555664	 40.48
0.81419978	 -0.00019311523	 40.595
0.81649832	 -0.00019055176	 40.71
0.81879687	 -0.00018817139	 40.825
0.82109541	 -0.00018579102	 40.94
0.82339395	 -0.00018304443	 41.055
0.82569249	 -0.00018023682	 41.17
0.82799103	 -0.00017694092	 41.285
0.83028957	 -0.00017388916	 41.4
0.83258811	 -0.00017095947	 41.515
0.83488666	 -0.00016784668	 41.63
0.8371852	 -0.00016473389	 41.745
0.83948374	 -0.00016186523	 41.86
0.84178228	 -0.0001583252	 41.975
0.84408082	 -0.00015527344	 42.09
0.84639691	 -0.00015203857	 42.205
0.84869545	 -0.00014862061	 42.32
0.85099399	 -0.00014501953	 42.435
0.85329253	 -0.00014123535	 42.55
0.85559107	 -0.00013800049	 42.665
0.85788961	 -0.00013439941	 42.78
0.86018816	 -0.00013098145	 42.895
0.8624867	 -0.00012731934	 43.01
0.86478524	 -0.00012353516	 43.125
0.86708378	 -0.00012023926	 43.24
0.86938232	 -0.00011694336	 43.355
0.87168086	 -0.00011315918	 43.47
0.8739794	 -0.00010925293	 43.585
0.87627795	 -0.00010534668	 43.7
0.87859403	 -0.00010137939	 43.815
0.88089257	 -9.7717285e-005	 43.93
0.88319112	 -9.4061279e-005	 44.045
0.88548966	 -9.0490723e-005	 44.16
0.8877882	 -8.6798096e-005	 44.275
0.89008674	 -8.3221436e-005	 44.39
0.89238528	 -7.9943848e-005	 44.505
0.89468382	 -7.6501465e-005	 44.62
0.89698236	 -7.2912598e-005	 44.735
0.89928091	 -6.9287109e-005	 44.85
0.90157945	 -6.5863037e-005	 44.965
0.90387799	 -6.2530518e-005	 45.08
0.90617653	 -5.9234619e-005	 45.195
0.90847507	 -5.6048584e-005	 45.31
0.91077361	 -5.2929688e-005	 45.425
0.9130897	 -4.9688721e-005	 45.54
0.91538824	 -4.699707e-005	 45.655
0.91768678	 -4.4213867e-005	 45.77
0.91998532	 -4.1375732e-005	 45.885
0.92228387	 -3.840332e-005	 46
0.92458241	 -3.5693359e-005	 46.115
0.92688095	 -3.3276367e-005	 46.23
0.92917949	 -3.081665e-005	 46.345
0.93147803	 -2.8582764e-005	 46.46
0.93377657	 -2.6385498e-005	 46.575
0.93607511	 -2.4145508e-005	 46.69
0.93837366	 -2.2296143e-005	 46.805
0.9406722	 -2.0574951e-005	 46.92
0.94297074	 -1.8695068e-005	 47.035
0.94528683	 -1.6662598e-005	 47.15
0.94758537	 -1.4862061e-005	 47.265
0.94988391	 -1.3269043e-005	 47.38
0.95218245	 -1.1785889e-005	 47.495
0.95448099	 -1.0345459e-005	 47.61
0.95677953	 -9.0942383e-006	 47.725
0.95907807	 -7.8088379e-006	 47.84
0.96137661	 -6.7547607e-006	 47.955
0.96367516	 -5.8868408e-006	 48.07
0.9659737	 -4.8730469e-006	 48.185
0.96827224	 -3.7988281e-006	 48.3
0.97057078	 -2.6617432e-006	 48.415
0.97286932	 -1.8225098e-006	 48.53
0.97516786	 -1.0394287e-006	 48.645
0.97748395	 -1.4038086e-007	 48.76
0.97978249	 4.6948242e-007	 48.875
0.98208103	 1.1036377e-006	 48.99
0.98437957	 1.6569824e-006	 49.105
0.98667812	 1.9562378e-006	 49.22
0.98897666	 2.3425293e-006	 49.335
0.9912752	 2.8881836e-006	 49.45
0.99357374	 3.5565186e-006	 49.565
0.99587228	 3.9727783e-006	 49.68
0.99817082	 4.2883301e-006	 49.795
1.0004694	 4.6936035e-006	 49.91
1.0027679	 4.9420166e-006	 50.025
1.0050664	 5.1599121e-006	 50.14
1.007365	 5.6048584e-006	 50.255
1.0096635	 5.5651855e-006	 50.37
1.0119796	 5.7342529e-006	 50.485
1.0142782	 5.9667969e-006	 50.6
1.0165767	 6.3214111e-006	 50.715
1.0188752	 6.651001e-006	 50.83
1.0211738	 6.8029785e-006	 50.945
1.0234723	 6.973877e-006	 51.06
1.0257709	 7.0782471e-006	 51.175
1.0280694	 7.1307373e-006	 51.29
1.0303679	 7.3950195e-006	 51.405
1.0326665	 7.3345947e-006	 51.52
1.034965	 7.2070313e-006	 51.635
1.0372636	 7.265625e-006	 51.75
1.0395621	 7.5e-006	 51.865
1.0418607	 7.7575684e-006	 51.98
1.0441767	 7.9650879e-006	 52.095
1.0464753	 8.0688477e-006	 52.21
1.0487738	 8.1341553e-006	 52.325
1.0510724	 8.1665039e-006	 52.44
1.0533709	 8.2818604e-006	 52.555
1.0556694	 8.2562256e-006	 52.67
1.057968	 8.1298828e-006	 52.785
1.0602665	 8.0749512e-006	 52.9
1.0625651	 8.1994629e-006	 53.015
1.0648636	 8.4875488e-006	 53.13
1.0671622	 8.6004639e-006	 53.245
1.0694607	 8.5772705e-006	 53.36
1.0717592	 8.6968994e-006	 53.475
1.0740578	 8.6920166e-006	 53.59
1.0763739	 8.8446045e-006	 53.705
1.0786724	 8.9971924e-006	 53.82
1.080971	 8.8085938e-006	 53.935
1.0832695	 8.6834717e-006	 54.05
1.085568	 8.8000488e-006	 54.165
1.0878666	 9.006958e-006	 54.28
1.0901651	 9.2114258e-006	 54.395
1.0924637	 9.1784668e-006	 54.51
1.0947622	 9.2633057e-006	 54.625
1.0970607	 9.2895508e-006	 54.74
1.0993593	 9.2828369e-006	 54.855
1.1016578	 9.5123291e-006	 54.97
1.1039564	 9.3255615e-006	 55.085
1.1062549	 9.1845703e-006	 55.2
1.1085534	 9.2553711e-006	 55.315
1.1108695	 9.5172119e-006	 55.43
1.1131681	 9.777832e-006	 55.545
1.1154666	 9.8236084e-006	 55.66
1.1177652	 9.8699951e-006	 55.775
1.1200637	 9.9383545e-006	 55.89
1.1223622	 9.9176025e-006	 56.005
1.1246608	 1.0029907e-005	 56.12
1.1269593	 1.0009766e-005	 56.235
1.1292579	 9.8406982e-006	 56.35
1.1315564	 9.8657227e-006	 56.465
1.1338549	 9.9981689e-006	 56.58
1.1361535	 1.0292969e-005	 56.695
1.138452	 1.0357666e-005	 56.81
1.1407506	 1.0419312e-005	 56.925
1.1430667	 1.0656738e-005	 57.04
1.1453652	 1.0644531e-005	 57.155
1.1476637	 1.0686646e-005	 57.27
1.1499623	 1.0845337e-005	 57.385
1.1522608	 1.0662842e-005	 57.5
1.1545594	 1.0609741e-005	 57.615
1.1568579	 1.0712891e-005	 57.73
1.1591564	 1.1040039e-005	 57.845
1.161455	 1.1173096e-005	 57.96
1.1637535	 1.1195679e-005	 58.075
1.1660521	 1.133667e-005	 58.19
1.1683506	 1.1358032e-005	 58.305
1.1706492	 1.1394653e-005	 58.42
1.1729477	 1.1646118e-005	 58.535
1.1752638	 1.1563721e-005	 58.65
1.1775623	 1.1514282e-005	 58.765
1.1798609	 1.163208e-005	 58.88
1.1821594	 1.1903687e-005	 58.995
1.184458	 1.2159424e-005	 59.11
1.1867565	 1.2155762e-005	 59.225
1.189055	 1.2327881e-005	 59.34
1.1913536	 1.2421875e-005	 59.455
1.1936521	 1.2440186e-005	 59.57
1.1959507	 1.2728271e-005	 59.685
1.1982492	 1.2577515e-005	 59.8
1.1993371	 9.7460938e-006	 59.915
1.197021	 7.7697754e-006	 60.03
1.1947224	 6.7681885e-006	 60.145
1.1924239	 6.0601807e-006	 60.26
1.1901253	 5.267334e-006	 60.375
1.1878268	 4.6783447e-006	 60.49
1.1855283	 4.18396e-006	 60.605
1.1832297	 3.6096191e-006	 60.72
1.1809312	 3.3258057e-006	 60.835
1.1786326	 2.8411865e-006	 60.95
1.1763341	 2.2827148e-006	 61.065
1.1740356	 1.9610596e-006	 61.18
1.171737	 1.8023682e-006	 61.295
1.1694385	 1.75354e-006	 61.41
1.1671399	 1.5368652e-006	 61.525
1.1648414	 1.3873291e-006	 61.64
1.1625253	 1.0791016e-006	 61.755
1.1602268	 8.59375e-007	 61.87
1.1579282	 7.6184082e-007	 61.985
1.1556297	 5.9234619e-007	 62.1
1.1533311	 1.9232178e-007	 62.215
1.1510326	 5.255127e-008	 62.33
1.1487341	 1.0588989e-007	 62.445
1.1464355	 1.06073e-007	 62.56
1.144137	 1.2658691e-008	 62.675
1.1418384	 -6.5264893e-008	 62.79
1.1395399	 -1.9226685e-007	 62.905
1.1372413	 -2.2106934e-007	 63.02
1.1349428	 -3.1439209e-007	 63.135
1.1326443	 -3.3483887e-007	 63.25
1.1303282	 -7.3760986e-007	 63.365
1.1280296	 -8.7939453e-007	 63.48
1.1257311	 -8.9135742e-007	 63.595
1.1234326	 -6.8981934e-007	 63.71
1.121134	 -7.4951172e-007	 63.825
1.1188355	 -7.9046631e-007	 63.94
1.1165369	 -8.0255127e-007	 64.055
1.1142384	 -8.9941406e-007	 64.17
1.1119398	 -9.5587158e-007	 64.285
1.1096413	 -9.0161133e-007	 64.4
1.1073428	 -1.1821899e-006	 64.515
1.1050442	 -1.2775879e-006	 64.63
1.1027457	 -1.3360596e-006	 64.745
1.1004471	 -1.1714478e-006	 64.86
1.0981311	 -1.2547607e-006	 64.975
1.0958325	 -1.3432617e-006	 65.09
1.093534	 -1.3087158e-006	 65.205
1.0912354	 -1.3879395e-006	 65.32
1.0889369	 -1.4567261e-006	 65.435
1.0866383	 -1.3862305e-006	 65.55
1.0843398	 -1.6252441e-006	 65.665
1.0820413	 -1.7769775e-006	 65.78
1.0797427	 -1.7585449e-006	 65.895
1.0774442	 -1.5651855e-006	 66.01
1.0751456	 -1.5673218e-006	 66.125
1.0728471	 -1.6322021e-006	 66.24
1.0705486	 -1.6026001e-006	 66.355
1.06825	 -1.6737061e-006	 66.47
1.0659515	 -1.7390747e-006	 66.585
1.0636354	 -1.7783813e-006	 66.7
1.0590383	 -2.1557617e-006	 66.93
1.0567398	 -2.166748e-006	 67.045
1.0544412	 -1.9958496e-006	 67.16
1.0521427	 -1.9354248e-006	 67.275
1.0498441	 -2.0556641e-006	 67.39
1.0475456	 -2.0056152e-006	 67.505
1.0452471	 -2.0593262e-006	 67.62
1.0429485	 -2.1203613e-006	 67.735
1.04065	 -2.0684814e-006	 67.85
1.0383514	 -2.2894287e-006	 67.965
1.0360529	 -2.4523926e-006	 68.08
1.0337543	 -2.4633789e-006	 68.195
1.0314383	 -2.432251e-006	 68.31
1.0291397	 -2.3980713e-006	 68.425
1.0268412	 -2.4890137e-006	 68.54
1.0245426	 -2.4475098e-006	 68.655
1.0222441	 -2.512207e-006	 68.77
1.0199456	 -2.6104736e-006	 68.885
1.017647	 -2.5323486e-006	 69
1.0153485	 -2.779541e-006	 69.115
1.0130499	 -2.9284668e-006	 69.23
1.0107514	 -2.9803467e-006	 69.345
1.0084528	 -2.8222656e-006	 69.46
1.0061543	 -2.8076172e-006	 69.575
1.0038558	 -2.9187012e-006	 69.69
1.0015572	 -2.9333496e-006	 69.805
0.99924114	 -3.1140137e-006	 69.92
0.99694259	 -3.1988525e-006	 70.035
0.99464405	 -3.2073975e-006	 70.15
0.99234551	 -3.4967041e-006	 70.265
0.99004697	 -3.6364746e-006	 70.38
0.98774843	 -3.6962891e-006	 70.495
0.98544989	 -3.5198975e-006	 70.61
0.98315135	 -3.6035156e-006	 70.725
0.98085281	 -3.7164307e-006	 70.84
0.97855426	 -3.7731934e-006	 70.955
0.97625572	 -3.9434814e-006	 71.07
0.97395718	 -4.0270996e-006	 71.185
0.97165864	 -4.1595459e-006	 71.3
0.9693601	 -4.4927979e-006	 71.415
0.96706156	 -4.7003174e-006	 71.53
0.96474547	 -4.8864746e-006	 71.645
0.96244693	 -4.8358154e-006	 71.76
0.96014839	 -4.9987793e-006	 71.875
0.95784985	 -5.1806641e-006	 71.99
0.9555513	 -5.3552246e-006	 72.105
0.95325276	 -5.6170654e-006	 72.22
0.95095422	 -5.7928467e-006	 72.335
0.94865568	 -6.0882568e-006	 72.45
0.94635714	 -6.5698242e-006	 72.565
0.9440586	 -6.8908691e-006	 72.68
0.94176006	 -7.119751e-006	 72.795
0.93946151	 -7.2955322e-006	 72.91
0.93716297	 -7.6678467e-006	 73.025
0.93486443	 -8.0279541e-006	 73.14
0.93254834	 -8.571167e-006	 73.255
0.9302498	 -9.0820313e-006	 73.37
0.92795126	 -9.4873047e-006	 73.485
0.92565272	 -1.0150146e-005	 73.6
0.92335418	 -1.0911255e-005	 73.715
0.92105564	 -1.1550903e-005	 73.83
0.9187571	 -1.2137451e-005	 73.945
0.91645855	 -1.2689819e-005	 74.06
0.91416001	 -1.3563232e-005	 74.175
0.91186147	 -1.4365845e-005	 74.29
0.90956293	 -1.5313721e-005	 74.405
0.90726439	 -1.6317749e-005	 74.52
0.90496585	 -1.7305298e-005	 74.635
0.90266731	 -1.8647461e-005	 74.75
0.90035122	 -2.0050049e-005	 74.865
0.89805268	 -2.1368408e-005	 74.98
0.89575414	 -2.2644043e-005	 75.095
0.89345559	 -2.3986816e-005	 75.21
0.89115705	 -2.5628662e-005	 75.325
0.88885851	 -2.7276611e-005	 75.44
0.88655997	 -2.9064941e-005	 75.555
0.88426143	 -3.1048584e-005	 75.67
0.88196289	 -3.2861328e-005	 75.785
0.87966435	 -3.5162354e-005	 75.9
0.87736581	 -3.7597656e-005	 76.015
0.87506726	 -3.9984131e-005	 76.13
0.87276872	 -4.2340088e-005	 76.245
0.87047018	 -4.4781494e-005	 76.36
0.86817164	 -4.7558594e-005	 76.475
0.86585555	 -5.0427246e-005	 76.59
0.86355701	 -5.3356934e-005	 76.705
0.86125847	 -5.6451416e-005	 76.82
0.85895993	 -5.9344482e-005	 76.935
0.85666139	 -6.2774658e-005	 77.05
0.85436285	 -6.6247559e-005	 77.165
0.8520643	 -6.9702148e-005	 77.28
0.84976576	 -7.3046875e-005	 77.395
0.84746722	 -7.6483154e-005	 77.51
0.84516868	 -8.0145264e-005	 77.625
0.84287014	 -8.3654785e-005	 77.74
0.8405716	 -8.7359619e-005	 77.855
0.83827306	 -9.1143799e-005	 77.97
0.83597451	 -9.4763184e-005	 78.085
0.83365843	 -9.8895264e-005	 78.2
0.83135989	 -0.00010281982	 78.315
0.82906134	 -0.00010657349	 78.43
0.8267628	 -0.00011018677	 78.545
0.82446426	 -0.0001138855	 78.66
0.82216572	 -0.00011758423	 78.775
0.81986718	 -0.00012109985	 78.89
0.81756864	 -0.00012455444	 79.005
0.8152701	 -0.00012811279	 79.12
0.81297155	 -0.00013179321	 79.235
0.81067301	 -0.00013588867	 79.35
0.80837447	 -0.00013991089	 79.465
0.80607593	 -0.000143573	 79.58
0.80377739	 -0.00014702148	 79.695
0.80147885	 -0.00015042725	 79.81
0.79916276	 -0.00015400391	 79.925
0.79686422	 -0.00015720215	 80.04
0.79456568	 -0.00016052856	 80.155
0.79226714	 -0.00016376343	 80.27
0.78996859	 -0.00016686401	 80.385
0.78767005	 -0.00017023315	 80.5
0.78537151	 -0.00017349243	 80.615
0.78307297	 -0.00017640991	 80.73
0.78077443	 -0.0001789978	 80.845
0.77847589	 -0.00018168945	 80.96
0.77617735	 -0.00018444824	 81.075
0.77387881	 -0.00018707275	 81.19
0.77158026	 -0.00018988037	 81.305
0.76928172	 -0.00019244385	 81.42
0.76696564	 -0.00019482422	 81.535
0.76466709	 -0.00019702148	 81.65
0.76236855	 -0.00019946289	 81.765
0.76007001	 -0.00020184326	 81.88
0.75777147	 -0.00020391846	 81.995
0.75547293	 -0.00020605469	 82.11
0.75317439	 -0.00020819092	 82.225
0.75087585	 -0.00021044922	 82.34
0.7485773	 -0.00021258545	 82.455
0.74627876	 -0.00021484375	 82.57
0.74398022	 -0.0002164917	 82.685
0.74168168	 -0.00021868896	 82.8
0.73938314	 -0.00022094727	 82.915
0.7370846	 -0.00022277832	 83.03
0.73476851	 -0.00022460938	 83.145
0.73246997	 -0.00022589111	 83.26
0.73017143	 -0.00022772217	 83.375
0.72787289	 -0.00022918701	 83.49
0.72557434	 -0.00023059082	 83.605
0.7232758	 -0.00023217773	 83.72
0.72097726	 -0.00023364258	 83.835
0.71867872	 -0.00023547363	 83.95
0.71638018	 -0.00023730469	 84.065
0.71408164	 -0.00023895264	 84.18
0.7117831	 -0.00024023438	 84.295
0.70948455	 -0.00024145508	 84.41
0.70718601	 -0.00024298096	 84.525
0.70488747	 -0.0002442627	 84.64
0.70258893	 -0.0002454834	 84.755
0.70027284	 -0.00024713135	 84.87
0.6979743	 -0.00024798584	 84.985
0.69567576	 -0.00024938965	 85.1
0.69337722	 -0.00025073242	 85.215
0.69107868	 -0.00025195313	 85.33
0.68878014	 -0.00025286865	 85.445
0.6864816	 -0.00025396729	 85.56
0.68418305	 -0.00025469971	 85.675
0.68188451	 -0.00025585938	 85.79
0.67958597	 -0.00025695801	 85.905
0.67728743	 -0.00025769043	 86.02
0.67498889	 -0.00025830078	 86.135
0.67269035	 -0.00025933838	 86.25
0.67039181	 -0.00026098633	 86.365
0.66807572	 -0.00026226807	 86.48
0.66577718	 -0.00026306152	 86.595
0.66347864	 -0.0002635498	 86.71
0.66118009	 -0.00026464844	 86.825
0.65888155	 -0.00026593018	 86.94
0.65658301	 -0.00026702881	 87.055
0.65428447	 -0.00026782227	 87.17
0.65198593	 -0.00026873779	 87.285
0.64968739	 -0.00026977539	 87.4
0.64738885	 -0.00027075195	 87.515
0.6450903	 -0.0002713623	 87.63
0.64279176	 -0.00027160645	 87.745
0.64049322	 -0.00027191162	 87.86
0.63819468	 -0.00027270508	 87.975
0.63587859	 -0.00027386475	 88.09
0.63358005	 -0.00027453613	 88.205
0.63128151	 -0.00027557373	 88.32
0.62898297	 -0.00027618408	 88.435
0.62668443	 -0.00027716064	 88.55
0.62438589	 -0.00027832031	 88.665
0.62208734	 -0.00027911377	 88.78
0.6197888	 -0.00027972412	 88.895
0.61749026	 -0.00028009033	 89.01
0.61519172	 -0.00028063965	 89.125
0.61289318	 -0.00028143311	 89.24
0.61059464	 -0.00028210449	 89.355
0.6082961	 -0.00028271484	 89.47
0.60599755	 -0.00028295898	 89.585
0.60369901	 -0.00028356934	 89.7
0.60138293	 -0.00028430176	 89.815
0.59908438	 -0.00028503418	 89.93
0.59678584	 -0.0002857666	 90.045
0.5944873	 -0.00028613281	 90.16
0.59218876	 -0.00028656006	 90.275
0.58989022	 -0.00028710937	 90.39
0.58759168	 -0.00028765869	 90.505
0.58529314	 -0.00028857422	 90.62
0.5829946	 -0.00028887939	 90.735
0.58069605	 -0.00028967285	 90.85
0.57839751	 -0.00029071045	 90.965
0.57609897	 -0.00029101562	 91.08
0.57380043	 -0.00029095459	 91.195
0.57150189	 -0.00029095459	 91.31
0.5691858	 -0.0002913208	 91.425
0.56688726	 -0.00029174805	 91.54
0.56458872	 -0.00029211426	 91.655
0.56229018	 -0.00029302979	 91.77
0.55999164	 -0.00029296875	 91.885
0.55769309	 -0.00029370117	 92
0.55539455	 -0.00029388428	 92.115
0.55309601	 -0.00029400635	 92.23
0.55079747	 -0.00029412842	 92.345
0.54849893	 -0.00029449463	 92.46
0.54620039	 -0.00029510498	 92.575
0.54390185	 -0.00029571533	 92.69
0.5416033	 -0.00029632568	 92.805
0.53930476	 -0.00029669189	 92.92
0.53698868	 -0.00029693604	 93.035
0.53469013	 -0.000296875	 93.15
0.53239159	 -0.00029693604	 93.265
0.53009305	 -0.00029699707	 93.38
0.52779451	 -0.00029718018	 93.495
0.52549597	 -0.00029760742	 93.61
0.52319743	 -0.00029797363	 93.725
0.52089889	 -0.00029840088	 93.84
0.51860034	 -0.00029937744	 93.955
0.5163018	 -0.000300354	 94.07
0.51400326	 -0.00030096436	 94.185
0.51170472	 -0.00030194092	 94.3
0.50940618	 -0.00030206299	 94.415
0.50710764	 -0.00030145264	 94.53
0.5048091	 -0.00030102539	 94.645
0.50249301	 -0.00030133057	 94.76
0.50019447	 -0.0003012085	 94.875
0.49789593	 -0.00030114746	 94.99
0.49559738	 -0.00030194092	 95.105
0.49329884	 -0.00030267334	 95.22
0.4910003	 -0.00030340576	 95.335
0.48870176	 -0.00030407715	 95.45
0.48640322	 -0.00030407715	 95.565
0.48410468	 -0.00030389404	 95.68
0.48180614	 -0.00030401611	 95.795
0.4795076	 -0.00030426025	 95.91
0.47720905	 -0.00030432129	 96.025
0.47491051	 -0.00030493164	 96.14
0.47261197	 -0.00030578613	 96.255
0.47029588	 -0.00030603027	 96.37
0.46799734	 -0.00030633545	 96.485
0.4656988	 -0.00030639648	 96.6
0.46340026	 -0.00030651855	 96.715
0.46110172	 -0.00030633545	 96.83
0.45880318	 -0.00030651855	 96.945
0.45650464	 -0.0003067627	 97.06
0.45420609	 -0.00030718994	 97.175
0.45190755	 -0.00030743408	 97.29
0.44960901	 -0.00030780029	 97.405
0.44731047	 -0.00030822754	 97.52
0.44501193	 -0.00030883789	 97.635
0.44271339	 -0.00030883789	 97.75
0.44041485	 -0.00030883789	 97.865
0.43809876	 -0.00030877686	 97.98
0.43580022	 -0.000309021	 98.095
0.43350168	 -0.00030963135	 98.21
0.43120313	 -0.00030987549	 98.325
0.42890459	 -0.00030969238	 98.44
0.42660605	 -0.00031005859	 98.555
0.42430751	 -0.00031072998	 98.67
0.42200897	 -0.00031121826	 98.785
0.41971043	 -0.00031072998	 98.9
0.41741189	 -0.00031060791	 99.015
0.41511334	 -0.00031072998	 99.13
0.4128148	 -0.00031048584	 99.245
0.41051626	 -0.00031030273	 99.36
0.40821772	 -0.00031097412	 99.475
0.40591918	 -0.00031182861	 99.59
0.40360309	 -0.00031225586	 99.705
0.40130455	 -0.0003125	 99.82
0.39900601	 -0.00031341553	 99.935
0.39670747	 -0.0003135376	 100.05
0.39440893	 -0.00031335449	 100.165
0.39211039	 -0.00031268311	 100.28
0.38981184	 -0.00031280518	 100.395
0.3875133	 -0.00031262207	 100.51
0.38521476	 -0.00031280518	 100.625
0.38291622	 -0.00031359863	 100.74
0.38061768	 -0.00031420898	 100.855
0.37831914	 -0.00031512451	 100.97
0.3760206	 -0.000315979	 101.085
0.37372205	 -0.00031549072	 101.2
0.37140597	 -0.00031500244	 101.315
0.36910743	 -0.00031500244	 101.43
0.36680888	 -0.00031518555	 101.545
0.36451034	 -0.00031542969	 101.66
0.3622118	 -0.00031561279	 101.775
0.35991326	 -0.00031585693	 101.89
0.35761472	 -0.00031585693	 102.005
0.35531618	 -0.00031628418	 102.12
0.35301764	 -0.00031713867	 102.235
0.35071909	 -0.00031738281	 102.35
0.34842055	 -0.00031738281	 102.465
0.34612201	 -0.00031726074	 102.58
0.34382347	 -0.00031738281	 102.695
0.34152493	 -0.00031750488	 102.81
0.33922639	 -0.00031744385	 102.925
0.3369103	 -0.00031744385	 103.04
0.33461176	 -0.00031738281	 103.155
0.33231322	 -0.00031768799	 103.27
0.33001468	 -0.00031829834	 103.385
0.32771613	 -0.00031854248	 103.5
0.32541759	 -0.00031854248	 103.615
0.32311905	 -0.00031848145	 103.73
0.32082051	 -0.0003180542	 103.845
0.31852197	 -0.00031671143	 103.96
0.31622343	 -0.00031585693	 104.075
0.31392489	 -0.00031567383	 104.19
0.31162634	 -0.00031707764	 104.305
0.3093278	 -0.00031646729	 104.42
0.30702926	 -0.00031658936	 104.535
0.30471317	 -0.00031774902	 104.65
0.30241463	 -0.00031878662	 104.765
0.30011609	 -0.00031915283	 104.88
0.29781755	 -0.00031921387	 104.995
0.29551901	 -0.00031951904	 105.11
0.29322047	 -0.00031994629	 105.225
0.29092193	 -0.00031994629	 105.34
0.28862339	 -0.00032000732	 105.455
0.28632484	 -0.00032019043	 105.57
0.2840263	 -0.00032049561	 105.685
0.28172776	 -0.00032067871	 105.8
0.27942922	 -0.0003203125	 105.915
0.27713068	 -0.00031945801	 106.03
0.27483214	 -0.00031964111	 106.145
0.27251605	 -0.00032012939	 106.26
0.27021751	 -0.00032000732	 106.375
0.26791897	 -0.00032037354	 106.49
0.26562043	 -0.00032086182	 106.605
0.26332188	 -0.00032189941	 106.72
0.26102334	 -0.00032202148	 106.835
0.2587248	 -0.00032244873	 106.95
0.25642626	 -0.0003225708	 107.065
0.25412772	 -0.00032287598	 107.18
0.25182918	 -0.00032281494	 107.295
0.24953064	 -0.00032226563	 107.41
0.24723209	 -0.00032110596	 107.525
0.24493355	 -0.0003203125	 107.64
0.24263501	 -0.00032019043	 107.755
0.24033647	 -0.00032073975	 107.87
0.23802038	 -0.00032061768	 107.985
0.23572184	 -0.00032067871	 108.1
0.2334233	 -0.00031988525	 108.215
0.23112476	 -0.0003203125	 108.33
0.22882622	 -0.0003215332	 108.445
0.22652768	 -0.00032196045	 108.56
0.22422913	 -0.00032202148	 108.675
0.22193059	 -0.00032165527	 108.79
0.21963205	 -0.00032202148	 108.905
0.21733351	 -0.0003225708	 109.02
0.21503497	 -0.00032263184	 109.135
0.21273643	 -0.00032226563	 109.25
0.21043789	 -0.00032159424	 109.365
0.20813935	 -0.00032000732	 109.48
0.20582326	 -0.00031915283	 109.595
0.20352472	 -0.00031903076	 109.71
0.20122617	 -0.0003203125	 109.825
0.19892763	 -0.00032110596	 109.94
0.19662909	 -0.00032122803	 110.055
0.19433055	 -0.00032171631	 110.17
0.19203201	 -0.0003215332	 110.285
0.18973347	 -0.00032110596	 110.4
0.18743493	 -0.00032073975	 110.515
0.18513639	 -0.00032110596	 110.63
0.18283784	 -0.00032086182	 110.745
0.1805393	 -0.00032049561	 110.86
0.17824076	 -0.00032025146	 110.975
0.17594222	 -0.00031988525	 111.09
0.17362613	 -0.00032025146	 111.205
0.17132759	 -0.00032055664	 111.32
0.16902905	 -0.00032043457	 111.435
0.16673051	 -0.00032055664	 111.55
0.16443197	 -0.00032110596	 111.665
0.16213343	 -0.00032159424	 111.78
0.15983488	 -0.00032147217	 111.895
0.15753634	 -0.00032122803	 112.01
0.1552378	 -0.00032159424	 112.125
0.15293926	 -0.00032165527	 112.24
0.15064072	 -0.00032220459	 112.355
0.14834218	 -0.00032305908	 112.47
0.14604364	 -0.00032354736	 112.585
0.14374509	 -0.00032342529	 112.7
0.14144655	 -0.00032330322	 112.815
0.13913047	 -0.00032281494	 112.93
0.13683192	 -0.00032220459	 113.045
0.13453338	 -0.0003223877	 113.16
0.13223484	 -0.0003225708	 113.275
0.1299363	 -0.00032226563	 113.39
0.12763776	 -0.00032281494	 113.505
0.12533922	 -0.00032342529	 113.62
0.12304068	 -0.00032336426	 113.735
0.12074213	 -0.00032330322	 113.85
0.11844359	 -0.00032299805	 113.965
0.11614505	 -0.00032324219	 114.08
0.11384651	 -0.00032330322	 114.195
0.11154797	 -0.00032354736	 114.31
0.10924943	 -0.00032354736	 114.425
0.10693334	 -0.00032409668	 114.54
0.1046348	 -0.00032385254	 114.655
0.10233626	 -0.00032305908	 114.77
0.10003772	 -0.00032305908	 114.885
